# PhyPiDAQ Data recorder  181001-2017
#   logging interval 0.05
#   weight (Massest√ºck): m = 263.68 g
#   mass of coil spring (Masse der Schraubenfeder): m = 14.1 g
# 0-1:(N)
2.072
2.06
2.013
1.784
1.658
1.557
1.588
1.638
1.792
1.996
2.231
2.511
2.797
3.085
3.35
3.556
3.737
3.826
3.883
3.806
3.702
3.499
3.28
3.008
2.73
2.437
2.174
1.964
1.754
1.661
1.583
1.636
1.707
1.887
2.093
2.36
2.646
2.945
3.22
3.437
3.64
3.786
3.844
3.877
3.78
3.662
3.446
3.219
2.918
2.651
2.341
2.109
1.883
1.741
1.636
1.59
1.654
1.759
1.933
2.174
2.403
2.731
2.982
3.289
3.457
3.716
3.78
3.884
3.841
3.75
3.607
3.372
3.083
2.805
2.512
2.259
1.989
1.831
1.636
1.627
1.575
1.66
1.767
1.995
2.212
2.527
2.821
3.106
3.399
3.599
3.764
3.826
3.842
3.811
3.676
3.527
3.27
3.037
2.724
2.453
2.171
1.96
1.761
1.651
1.596
1.617
1.74
1.872
2.097
2.317
2.582
2.865
3.149
3.406
3.605
3.77
3.835
3.849
3.782
3.638
3.456
3.218
2.954
2.653
2.429
2.128
1.917
1.743
1.641
1.593
1.649
1.739
1.92
2.143
2.413
2.672
2.975
3.212
3.488
3.657
3.81
3.848
3.874
3.757
3.615
3.389
3.146
2.855
2.596
2.283
2.062
1.839
1.707
1.603
1.611
1.632
1.791
1.941
2.227
2.491
2.799
3.059
3.308
3.497
3.69
3.779
3.838
3.773
3.702
3.509
3.31
3.028
2.764
2.463
2.225
1.98
1.808
1.69
1.62
1.59
1.709
1.834
2.047
2.276
2.559
2.829
3.127
3.369
3.561
3.731
3.812
3.829
3.8
3.695
3.522
3.215
2.971
2.66
2.402
2.144
1.912
1.767
1.644
1.645
1.639
1.78
1.892
2.137
2.394
2.694
2.943
3.203
3.447
3.637
3.78
3.842
3.823
3.76
3.584
3.424
3.131
2.916
2.585
2.364
2.074
1.883
1.685
1.638
1.608
1.664
1.776
1.962
2.183
2.455
2.734
3.006
3.231
3.505
3.639
3.779
3.814
3.836
3.711
3.542
3.286
3.052
2.758
2.496
2.219
2.011
1.809
1.698
1.625
1.631
1.701
1.839
2.013
2.309
2.582
2.836
3.095
3.36
3.55
3.71
3.789
3.81
3.754
3.686
3.449
3.256
2.977
2.683
2.421
2.152
1.962
1.776
1.727
1.618
1.689
1.755
1.918
2.12
2.365
2.635
2.913
3.181
3.426
3.623
3.766
3.807
3.832
3.744
3.641
3.384
3.184
2.888
2.651
2.353
2.118
1.908
1.757
1.657
1.641
1.674
1.807
1.968
2.208
2.442
2.759
2.996
3.29
3.484
3.638
3.739
3.816
3.745
3.688
3.486
3.31
3.041
2.793
2.505
2.262
2.036
1.85
1.731
1.667
1.621
1.759
1.847
2.055
2.265
2.543
2.8
3.094
3.309
3.529
3.672
3.775
3.809
3.802
3.629
3.459
3.282
2.974
2.713
2.435
2.192
1.959
1.846
1.697
1.652
1.69
1.773
1.923
2.126
2.345
2.653
2.939
3.186
3.403
3.615
3.762
3.864
3.827
3.766
3.612
3.445
3.163
2.915
2.632
2.374
2.117
1.935
1.753
1.71
1.681
1.73
1.82
2.014
2.202
2.493
2.711
2.997
3.239
3.491
3.623
3.765
3.779
3.769
3.664
3.526
3.284
3.092
2.802
2.562
2.305
2.093
1.883
1.712
1.687
1.67
1.721
1.875
2.041
2.29
2.514
2.804
3.025
3.305
3.473
3.66
3.783
3.779
3.753
3.628
3.452
3.236
2.977
2.714
2.442
2.215
2.001
1.843
1.699
1.657
1.709
1.765
1.911
2.124
2.385
2.635
2.945
3.141
3.434
3.62
3.745
3.807
3.772
3.755
3.587
3.401
3.137
2.877
2.64
2.325
2.11
1.895
1.866
1.68
1.703
1.705
1.846
2.007
2.208
2.436
2.734
3.043
3.255
3.47
3.643
3.711
3.813
3.712
3.671
3.473
3.36
3.043
2.823
2.518
2.289
2.056
1.868
1.746
1.668
1.68
1.743
1.872
2.058
2.252
2.522
2.75
3.071
3.254
3.512
3.637
3.771
3.76
3.701
3.651
3.44
3.267
2.984
2.714
2.456
2.199
2.026
1.815
1.722
1.665
1.7
1.772
1.962
2.126
2.387
2.632
2.894
3.174
3.379
3.594
3.713
3.876
3.791
3.723
3.576
3.365
3.175
2.868
2.625
2.377
2.202
1.957
1.815
1.742
1.686
1.78
1.821
2.06
2.236
2.57
2.761
3.013
3.245
3.46
3.645
3.727
3.767
3.768
3.683
3.527
3.294
3.097
2.789
2.578
2.261
2.07
1.871
1.804
1.688
1.707
1.75
1.876
2.063
2.268
2.509
2.791
3.046
3.294
3.47
3.648
3.688
3.765
3.662
3.626
3.443
3.233
2.97
2.728
2.458
2.211
2.013
1.84
1.687
1.699
1.699
1.813
1.944
2.146
2.35
2.667
2.907
3.136
3.379
3.546
3.658
3.764
3.732
3.714
3.54
3.349
3.133
2.865
2.612
2.369
2.156
1.968
1.831
1.761
1.725
1.744
1.829
1.99
2.207
2.465
2.719
3.01
3.233
3.429
3.609
3.674
3.732
3.711
3.667
3.51
3.358
3.076
2.835
2.556
2.303
2.061
1.936
1.779
1.763
1.719
1.803
1.9
2.094
2.273
2.533
2.796
3.069
3.303
3.506
3.621
3.743
3.727
3.704
3.556
3.463
3.222
3.019
2.736
2.478
2.223
2.031
1.843
1.755
1.712
1.746
1.833
1.98
2.154
2.369
2.589
2.864
3.086
3.342
3.509
3.676
3.722
3.73
3.671
3.545
3.356
3.144
2.896
2.657
2.431
2.196
1.982
1.858
1.752
1.721
1.768
1.864
2.036
2.239
2.495
2.727
3.015
3.221
3.454
3.606
3.737
3.773
3.776
3.676
3.548
3.342
3.117
2.842
2.602
2.33
2.121
1.932
1.829
1.731
1.746
1.768
1.921
2.055
2.293
2.517
2.8
3.024
3.29
3.471
3.626
3.699
3.745
3.687
3.611
3.442
3.261
3.002
2.781
2.494
2.261
2.044
1.887
1.753
1.729
1.741
1.829
1.963
2.149
2.348
2.591
2.829
3.098
3.302
3.507
3.623
3.726
3.704
3.67
3.535
3.367
3.148
2.914
2.678
2.436
2.211
2.005
1.883
1.778
1.746
1.763
1.859
2.008
2.205
2.449
2.691
2.956
3.164
3.404
3.558
3.677
3.729
3.721
3.707
3.532
3.379
3.097
2.91
2.602
2.393
2.146
1.978
1.852
1.773
1.766
1.788
1.916
2.07
2.276
2.535
2.749
3.05
3.233
3.473
3.57
3.731
3.709
3.709
3.592
3.451
3.254
3.016
2.779
2.508
2.281
2.081
1.891
1.805
1.719
1.77
1.803
1.978
2.086
2.351
2.554
2.835
3.061
3.288
3.474
3.622
3.688
3.7
3.661
3.531
3.381
3.161
2.945
2.713
2.434
2.23
1.978
1.877
1.737
1.75
1.744
1.849
1.998
2.177
2.431
2.655
2.921
3.145
3.361
3.536
3.693
3.751
3.74
3.674
3.535
3.352
3.098
2.863
2.621
2.359
2.166
1.957
1.953
1.744
1.872
1.838
1.911
2.071
2.259
2.503
2.805
3.037
3.277
3.584
3.628
3.704
3.766
3.68
3.622
3.456
3.286
3.02
2.823
2.531
2.32
2.093
1.95
1.818
1.717
1.763
1.813
1.953
2.141
2.329
2.613
2.82
3.094
3.264
3.495
3.566
3.693
3.673
3.662
3.529
3.364
3.184
2.905
2.687
2.432
2.205
2.02
1.856
1.795
1.73
1.833
1.855
2.041
2.193
2.429
2.638
2.884
3.138
3.325
3.521
3.647
3.709
3.67
3.614
3.506
3.301
3.124
2.842
2.641
2.378
2.122
1.952
1.79
1.766
1.695
1.805
1.866
2.089
2.234
2.492
2.727
2.978
3.204
3.389
3.557
3.674
3.73
3.677
3.577
3.432
3.185
3.004
2.73
2.527
2.234
2.094
1.885
1.806
1.722
1.755
1.828
1.94
2.142
2.346
2.616
2.849
3.117
3.322
3.463
3.624
3.669
3.715
3.628
3.561
3.359
3.216
2.928
2.694
2.471
2.214
2.069
1.9
1.842
1.735
1.831
1.872
2.007
2.209
2.41
2.676
2.896
3.151
3.34
3.526
3.638
3.671
3.707
3.585
3.556
3.299
3.133
2.834
2.643
2.36
2.166
1.977
1.852
1.775
1.754
1.803
1.911
2.056
2.26
2.448
2.737
2.922
3.246
3.394
3.583
3.648
3.69
3.631
3.549
3.4
3.221
2.998
2.782
2.508
2.309
2.073
1.925
1.798
1.765
1.739
1.856
1.965
2.12
2.318
2.558
2.796
3.048
3.255
3.433
3.573
3.652
3.681
3.645
3.525
3.382
3.156
2.964
2.72
2.479
2.269
2.046
1.901
1.79
1.763
1.769
1.867
1.996
2.207
2.404
2.682
2.879
3.15
3.319
3.484
3.662
3.715
3.665
3.651
3.474
3.347
3.097
2.893
2.623
2.408
2.169
2.009
1.883
1.799
1.759
1.816
1.912
2.083
2.233
2.48
2.68
2.98
3.156
3.389
3.506
3.633
3.655
3.639
3.546
3.426
3.238
3.026
2.775
2.573
2.329
2.134
1.955
1.838
1.753
1.788
1.818
1.956
2.111
2.32
2.543
2.78
3.018
3.237
3.437
3.565
3.65
3.703
3.676
3.543
3.366
3.187
2.958
2.727
2.489
2.255
2.081
1.911
1.852
1.762
1.79
1.866
2.009
2.205
2.429
2.652
2.905
3.084
3.311
3.458
3.599
3.657
3.677
3.593
3.51
3.316
3.144
2.879
2.678
2.407
2.223
2.021
1.901
1.79
1.784
1.802
1.917
2.029
2.242
2.432
2.695
2.902
3.152
3.318
3.518
3.58
3.655
3.615
3.566
3.439
3.276
3.029
2.811
2.553
2.33
2.124
1.967
1.833
1.797
1.771
1.851
1.928
2.108
2.265
2.52
2.787
3.029
3.212
3.402
3.543
3.629
3.651
3.613
3.514
3.386
3.223
2.96
2.747
2.508
2.271
2.096
1.948
1.839
1.779
1.809
